#  E (eV)   dosup(E)     dosdw(E)   Int dos(E) EFermi =   33.584 eV
  20.000  0.0000E+00  0.0000E+00  0.8000E+01
  20.050  0.0000E+00  0.0000E+00  0.8000E+01
  20.100  0.0000E+00  0.0000E+00  0.8000E+01
  20.150  0.0000E+00  0.0000E+00  0.8000E+01
  20.200  0.0000E+00  0.0000E+00  0.8000E+01
  20.250  0.0000E+00  0.0000E+00  0.8000E+01
  20.300  0.0000E+00  0.0000E+00  0.8000E+01
  20.350  0.0000E+00  0.0000E+00  0.8000E+01
  20.400  0.0000E+00  0.0000E+00  0.8000E+01
  20.450  0.0000E+00  0.0000E+00  0.8000E+01
  20.500  0.0000E+00  0.0000E+00  0.8000E+01
  20.550  0.0000E+00  0.0000E+00  0.8000E+01
  20.600  0.0000E+00  0.0000E+00  0.8000E+01
  20.650  0.0000E+00  0.0000E+00  0.8000E+01
  20.700  0.0000E+00  0.0000E+00  0.8000E+01
  20.750  0.0000E+00  0.0000E+00  0.8000E+01
  20.800  0.0000E+00  0.0000E+00  0.8000E+01
  20.850  0.0000E+00  0.0000E+00  0.8000E+01
  20.900  0.0000E+00  0.0000E+00  0.8000E+01
  20.950  0.0000E+00  0.0000E+00  0.8000E+01
  21.000  0.0000E+00  0.0000E+00  0.8000E+01
  21.050  0.0000E+00  0.0000E+00  0.8000E+01
  21.100  0.0000E+00  0.0000E+00  0.8000E+01
  21.150  0.0000E+00  0.0000E+00  0.8000E+01
  21.200  0.0000E+00  0.0000E+00  0.8000E+01
  21.250  0.0000E+00  0.0000E+00  0.8000E+01
  21.300  0.0000E+00  0.0000E+00  0.8000E+01
  21.350  0.0000E+00  0.0000E+00  0.8000E+01
  21.400  0.0000E+00  0.0000E+00  0.8000E+01
  21.450  0.0000E+00  0.0000E+00  0.8000E+01
  21.500  0.0000E+00  0.0000E+00  0.8000E+01
  21.550  0.0000E+00  0.0000E+00  0.8000E+01
  21.600  0.0000E+00  0.0000E+00  0.8000E+01
  21.650  0.0000E+00  0.0000E+00  0.8000E+01
  21.700  0.0000E+00  0.0000E+00  0.8000E+01
  21.750  0.0000E+00  0.0000E+00  0.8000E+01
  21.800  0.0000E+00  0.0000E+00  0.8000E+01
  21.850  0.0000E+00  0.0000E+00  0.8000E+01
  21.900  0.0000E+00  0.0000E+00  0.8000E+01
  21.950  0.0000E+00  0.0000E+00  0.8000E+01
  22.000  0.0000E+00  0.0000E+00  0.8000E+01
  22.050  0.0000E+00  0.0000E+00  0.8000E+01
  22.100  0.1340E-03  0.0000E+00  0.8000E+01
  22.150  0.2996E-02  0.0000E+00  0.8000E+01
  22.200  0.4804E-02  0.0000E+00  0.8000E+01
  22.250  0.5980E-02  0.0000E+00  0.8001E+01
  22.300  0.7321E-02  0.1199E-02  0.8001E+01
  22.350  0.8690E-02  0.3866E-02  0.8001E+01
  22.400  0.9738E-02  0.5328E-02  0.8002E+01
  22.450  0.1004E-01  0.6429E-02  0.8003E+01
  22.500  0.1051E-01  0.7852E-02  0.8004E+01
  22.550  0.1132E-01  0.9075E-02  0.8005E+01
  22.600  0.1216E-01  0.9923E-02  0.8006E+01
  22.650  0.1303E-01  0.9970E-02  0.8007E+01
  22.700  0.1392E-01  0.1072E-01  0.8008E+01
  22.750  0.1483E-01  0.1152E-01  0.8009E+01
  22.800  0.1537E-01  0.1235E-01  0.8011E+01
  22.850  0.1592E-01  0.1320E-01  0.8012E+01
  22.900  0.1643E-01  0.1408E-01  0.8014E+01
  22.950  0.1693E-01  0.1474E-01  0.8015E+01
  23.000  0.1746E-01  0.1538E-01  0.8017E+01
  23.050  0.1806E-01  0.1592E-01  0.8019E+01
  23.100  0.1868E-01  0.1637E-01  0.8020E+01
  23.150  0.1943E-01  0.1688E-01  0.8022E+01
  23.200  0.2021E-01  0.1740E-01  0.8024E+01
  23.250  0.2102E-01  0.1800E-01  0.8026E+01
  23.300  0.2187E-01  0.1863E-01  0.8028E+01
  23.350  0.2263E-01  0.1936E-01  0.8030E+01
  23.400  0.2295E-01  0.2012E-01  0.8032E+01
  23.450  0.2351E-01  0.2090E-01  0.8034E+01
  23.500  0.2412E-01  0.2172E-01  0.8036E+01
  23.550  0.2475E-01  0.2237E-01  0.8039E+01
  23.600  0.2544E-01  0.2270E-01  0.8041E+01
  23.650  0.2597E-01  0.2322E-01  0.8044E+01
  23.700  0.2672E-01  0.2381E-01  0.8046E+01
  23.750  0.2752E-01  0.2440E-01  0.8049E+01
  23.800  0.2834E-01  0.2504E-01  0.8051E+01
  23.850  0.2919E-01  0.2554E-01  0.8054E+01
  23.900  0.3000E-01  0.2625E-01  0.8057E+01
  23.950  0.3092E-01  0.2699E-01  0.8060E+01
  24.000  0.3182E-01  0.2775E-01  0.8063E+01
  24.050  0.3273E-01  0.2854E-01  0.8066E+01
  24.100  0.3351E-01  0.2929E-01  0.8069E+01
  24.150  0.3433E-01  0.3012E-01  0.8072E+01
  24.200  0.3494E-01  0.3095E-01  0.8075E+01
  24.250  0.3591E-01  0.3179E-01  0.8078E+01
  24.300  0.3695E-01  0.3247E-01  0.8082E+01
  24.350  0.4944E-01  0.3319E-01  0.8086E+01
  24.400  0.5634E-01  0.3372E-01  0.8090E+01
  24.450  0.6362E-01  0.3457E-01  0.8095E+01
  24.500  0.7131E-01  0.3546E-01  0.8100E+01
  24.550  0.7437E-01  0.3640E-01  0.8105E+01
  24.600  0.7909E-01  0.3737E-01  0.8111E+01
  24.650  0.8482E-01  0.3831E-01  0.8117E+01
  24.700  0.9052E-01  0.3906E-01  0.8123E+01
  24.750  0.9544E-01  0.4017E-01  0.8130E+01
  24.800  0.9994E-01  0.4136E-01  0.8137E+01
  24.850  0.1044E+00  0.4262E-01  0.8144E+01
  24.900  0.1340E+00  0.4381E-01  0.8152E+01
  24.950  0.1644E+00  0.4508E-01  0.8161E+01
  25.000  0.1923E+00  0.4633E-01  0.8173E+01
  25.050  0.2164E+00  0.4786E-01  0.8185E+01
  25.100  0.2333E+00  0.4925E-01  0.8199E+01
  25.150  0.2543E+00  0.5039E-01  0.8213E+01
  25.200  0.2783E+00  0.5208E-01  0.8229E+01
  25.250  0.2976E+00  0.5397E-01  0.8246E+01
  25.300  0.3207E+00  0.6732E-01  0.8265E+01
  25.350  0.3529E+00  0.7580E-01  0.8285E+01
  25.400  0.4104E+00  0.8523E-01  0.8308E+01
  25.450  0.4124E+00  0.9227E-01  0.8333E+01
  25.500  0.4190E+00  0.1054E+00  0.8359E+01
  25.550  0.4289E+00  0.1497E+00  0.8387E+01
  25.600  0.4340E+00  0.1807E+00  0.8417E+01
  25.650  0.4452E+00  0.2070E+00  0.8448E+01
  25.700  0.4547E+00  0.2296E+00  0.8482E+01
  25.750  0.4675E+00  0.2541E+00  0.8517E+01
  25.800  0.4823E+00  0.2837E+00  0.8554E+01
  25.850  0.5046E+00  0.3202E+00  0.8594E+01
  25.900  0.5458E+00  0.3491E+00  0.8637E+01
  25.950  0.5537E+00  0.3586E+00  0.8682E+01
  26.000  0.5486E+00  0.3641E+00  0.8728E+01
  26.050  0.5440E+00  0.3680E+00  0.8773E+01
  26.100  0.5381E+00  0.3713E+00  0.8819E+01
  26.150  0.5363E+00  0.3759E+00  0.8864E+01
  26.200  0.5329E+00  0.3812E+00  0.8910E+01
  26.250  0.5305E+00  0.3879E+00  0.8956E+01
  26.300  0.5262E+00  0.3946E+00  0.9002E+01
  26.350  0.5217E+00  0.4021E+00  0.9048E+01
  26.400  0.5241E+00  0.4091E+00  0.9094E+01
  26.450  0.5241E+00  0.4176E+00  0.9141E+01
  26.500  0.5231E+00  0.4270E+00  0.9189E+01
  26.550  0.5236E+00  0.4341E+00  0.9236E+01
  26.600  0.5305E+00  0.4474E+00  0.9285E+01
  26.650  0.5387E+00  0.4624E+00  0.9334E+01
  26.700  0.5489E+00  0.4818E+00  0.9385E+01
  26.750  0.5573E+00  0.5169E+00  0.9438E+01
  26.800  0.5662E+00  0.5359E+00  0.9492E+01
  26.850  0.5771E+00  0.5348E+00  0.9548E+01
  26.900  0.5264E+00  0.5326E+00  0.9603E+01
  26.950  0.4691E+00  0.5287E+00  0.9654E+01
  27.000  0.3600E+00  0.5285E+00  0.9701E+01
  27.050  0.2965E+00  0.5248E+00  0.9744E+01
  27.100  0.2634E+00  0.5278E+00  0.9784E+01
  27.150  0.2421E+00  0.5288E+00  0.9823E+01
  27.200  0.2258E+00  0.5281E+00  0.9861E+01
  27.250  0.2151E+00  0.5319E+00  0.9898E+01
  27.300  0.2076E+00  0.5433E+00  0.9936E+01
  27.350  0.2037E+00  0.5546E+00  0.9973E+01
  27.400  0.2005E+00  0.5579E+00  0.1001E+02
  27.450  0.2763E+00  0.5696E+00  0.1005E+02
  27.500  0.5309E+00  0.5864E+00  0.1010E+02
  27.550  0.6810E+00  0.5805E+00  0.1016E+02
  27.600  0.6892E+00  0.4239E+00  0.1022E+02
  27.650  0.7575E+00  0.3631E+00  0.1028E+02
  27.700  0.8028E+00  0.2824E+00  0.1033E+02
  27.750  0.9068E+00  0.2510E+00  0.1039E+02
  27.800  0.1078E+01  0.2284E+00  0.1045E+02
  27.850  0.9012E+00  0.2158E+00  0.1051E+02
  27.900  0.7900E+00  0.2066E+00  0.1056E+02
  27.950  0.7478E+00  0.1982E+00  0.1061E+02
  28.000  0.6873E+00  0.1909E+00  0.1065E+02
  28.050  0.6170E+00  0.2148E+00  0.1070E+02
  28.100  0.5672E+00  0.4085E+00  0.1074E+02
  28.150  0.5250E+00  0.5977E+00  0.1080E+02
  28.200  0.4974E+00  0.5851E+00  0.1085E+02
  28.250  0.4710E+00  0.6212E+00  0.1090E+02
  28.300  0.4540E+00  0.6504E+00  0.1096E+02
  28.350  0.4384E+00  0.6682E+00  0.1101E+02
  28.400  0.4389E+00  0.7059E+00  0.1107E+02
  28.450  0.4098E+00  0.7610E+00  0.1113E+02
  28.500  0.4103E+00  0.9010E+00  0.1119E+02
  28.550  0.4099E+00  0.8858E+00  0.1126E+02
  28.600  0.4135E+00  0.7536E+00  0.1132E+02
  28.650  0.4143E+00  0.7116E+00  0.1137E+02
  28.700  0.3999E+00  0.6672E+00  0.1143E+02
  28.750  0.3696E+00  0.6146E+00  0.1148E+02
  28.800  0.3402E+00  0.5624E+00  0.1153E+02
  28.850  0.3367E+00  0.5258E+00  0.1157E+02
  28.900  0.3513E+00  0.4870E+00  0.1161E+02
  28.950  0.3783E+00  0.4703E+00  0.1166E+02
  29.000  0.3991E+00  0.4544E+00  0.1170E+02
  29.050  0.4174E+00  0.4389E+00  0.1174E+02
  29.100  0.4416E+00  0.4274E+00  0.1178E+02
  29.150  0.4630E+00  0.4215E+00  0.1183E+02
  29.200  0.4989E+00  0.4206E+00  0.1187E+02
  29.250  0.5635E+00  0.4221E+00  0.1192E+02
  29.300  0.6487E+00  0.4268E+00  0.1197E+02
  29.350  0.7090E+00  0.4294E+00  0.1203E+02
  29.400  0.7901E+00  0.4271E+00  0.1209E+02
  29.450  0.9090E+00  0.4361E+00  0.1215E+02
  29.500  0.9610E+00  0.4437E+00  0.1222E+02
  29.550  0.8568E+00  0.4174E+00  0.1229E+02
  29.600  0.7723E+00  0.4147E+00  0.1235E+02
  29.650  0.7356E+00  0.4135E+00  0.1241E+02
  29.700  0.6808E+00  0.4185E+00  0.1246E+02
  29.750  0.6227E+00  0.4322E+00  0.1252E+02
  29.800  0.5852E+00  0.4534E+00  0.1257E+02
  29.850  0.5617E+00  0.4728E+00  0.1262E+02
  29.900  0.5147E+00  0.4980E+00  0.1267E+02
  29.950  0.3645E+00  0.5325E+00  0.1272E+02
  30.000  0.3149E+00  0.5776E+00  0.1277E+02
  30.050  0.2986E+00  0.6341E+00  0.1281E+02
  30.100  0.2862E+00  0.7258E+00  0.1286E+02
  30.150  0.2801E+00  0.8167E+00  0.1291E+02
  30.200  0.2615E+00  0.8923E+00  0.1297E+02
  30.250  0.2529E+00  0.8306E+00  0.1303E+02
  30.300  0.2455E+00  0.7743E+00  0.1308E+02
  30.350  0.2396E+00  0.7453E+00  0.1313E+02
  30.400  0.2340E+00  0.7594E+00  0.1318E+02
  30.450  0.2296E+00  0.6578E+00  0.1322E+02
  30.500  0.2325E+00  0.6206E+00  0.1327E+02
  30.550  0.2281E+00  0.5835E+00  0.1331E+02
  30.600  0.2250E+00  0.5434E+00  0.1335E+02
  30.650  0.2221E+00  0.5164E+00  0.1339E+02
  30.700  0.2217E+00  0.3430E+00  0.1342E+02
  30.750  0.2211E+00  0.2993E+00  0.1344E+02
  30.800  0.2221E+00  0.2815E+00  0.1347E+02
  30.850  0.2244E+00  0.2698E+00  0.1349E+02
  30.900  0.2243E+00  0.2587E+00  0.1352E+02
  30.950  0.2264E+00  0.2482E+00  0.1354E+02
  31.000  0.2277E+00  0.2408E+00  0.1357E+02
  31.050  0.2313E+00  0.2329E+00  0.1359E+02
  31.100  0.2358E+00  0.2256E+00  0.1361E+02
  31.150  0.2408E+00  0.2183E+00  0.1364E+02
  31.200  0.2432E+00  0.2145E+00  0.1366E+02
  31.250  0.2480E+00  0.2130E+00  0.1368E+02
  31.300  0.2527E+00  0.2116E+00  0.1371E+02
  31.350  0.2579E+00  0.2081E+00  0.1373E+02
  31.400  0.2656E+00  0.2049E+00  0.1375E+02
  31.450  0.2756E+00  0.2018E+00  0.1378E+02
  31.500  0.2866E+00  0.2005E+00  0.1380E+02
  31.550  0.2993E+00  0.2004E+00  0.1382E+02
  31.600  0.3130E+00  0.1995E+00  0.1385E+02
  31.650  0.3280E+00  0.1989E+00  0.1388E+02
  31.700  0.3453E+00  0.1991E+00  0.1390E+02
  31.750  0.3648E+00  0.2003E+00  0.1393E+02
  31.800  0.3907E+00  0.2035E+00  0.1396E+02
  31.850  0.4368E+00  0.2044E+00  0.1399E+02
  31.900  0.5316E+00  0.2029E+00  0.1402E+02
  31.950  0.5392E+00  0.2041E+00  0.1406E+02
  32.000  0.5524E+00  0.2049E+00  0.1410E+02
  32.050  0.5693E+00  0.2059E+00  0.1414E+02
  32.100  0.5925E+00  0.2089E+00  0.1418E+02
  32.150  0.6171E+00  0.2136E+00  0.1422E+02
  32.200  0.6481E+00  0.2191E+00  0.1426E+02
  32.250  0.6695E+00  0.2240E+00  0.1430E+02
  32.300  0.6776E+00  0.2298E+00  0.1435E+02
  32.350  0.7094E+00  0.2376E+00  0.1439E+02
  32.400  0.7284E+00  0.2455E+00  0.1444E+02
  32.450  0.7268E+00  0.2524E+00  0.1449E+02
  32.500  0.7275E+00  0.2646E+00  0.1454E+02
  32.550  0.7474E+00  0.2746E+00  0.1459E+02
  32.600  0.7389E+00  0.2820E+00  0.1464E+02
  32.650  0.7459E+00  0.2934E+00  0.1469E+02
  32.700  0.7751E+00  0.3085E+00  0.1475E+02
  32.750  0.8726E+00  0.3343E+00  0.1480E+02
  32.800  0.9500E+00  0.3753E+00  0.1487E+02
  32.850  0.1003E+01  0.4107E+00  0.1494E+02
  32.900  0.9899E+00  0.4254E+00  0.1501E+02
  32.950  0.9758E+00  0.4283E+00  0.1508E+02
  33.000  0.1012E+01  0.4363E+00  0.1515E+02
  33.050  0.9962E+00  0.4452E+00  0.1522E+02
  33.100  0.9378E+00  0.4548E+00  0.1529E+02
  33.150  0.9723E+00  0.4586E+00  0.1536E+02
  33.200  0.9434E+00  0.4721E+00  0.1543E+02
  33.250  0.9470E+00  0.4824E+00  0.1550E+02
  33.300  0.9950E+00  0.4939E+00  0.1558E+02
  33.350  0.1110E+01  0.5096E+00  0.1566E+02
  33.400  0.2034E+01  0.5268E+00  0.1575E+02
  33.450  0.8109E+00  0.5482E+00  0.1583E+02
  33.500  0.6840E+00  0.5698E+00  0.1590E+02
  33.550  0.6275E+00  0.5994E+00  0.1596E+02
  33.600  0.5990E+00  0.6428E+00  0.1602E+02
  33.650  0.5636E+00  0.6635E+00  0.1608E+02
  33.700  0.5396E+00  0.6516E+00  0.1614E+02
  33.750  0.5210E+00  0.6495E+00  0.1620E+02
  33.800  0.5019E+00  0.6650E+00  0.1626E+02
  33.850  0.4810E+00  0.6683E+00  0.1632E+02
  33.900  0.4673E+00  0.6705E+00  0.1637E+02
  33.950  0.4483E+00  0.6695E+00  0.1643E+02
  34.000  0.4337E+00  0.6659E+00  0.1649E+02
  34.050  0.4252E+00  0.6730E+00  0.1654E+02
  34.100  0.4158E+00  0.6703E+00  0.1660E+02
  34.150  0.4065E+00  0.6697E+00  0.1665E+02
  34.200  0.4003E+00  0.6790E+00  0.1670E+02
  34.250  0.3950E+00  0.7549E+00  0.1676E+02
  34.300  0.3922E+00  0.7979E+00  0.1682E+02
  34.350  0.3864E+00  0.7587E+00  0.1688E+02
  34.400  0.3831E+00  0.7347E+00  0.1693E+02
  34.450  0.3805E+00  0.7190E+00  0.1699E+02
  34.500  0.3786E+00  0.7089E+00  0.1704E+02
  34.550  0.3777E+00  0.7243E+00  0.1710E+02
  34.600  0.3796E+00  0.6920E+00  0.1715E+02
  34.650  0.3771E+00  0.6897E+00  0.1721E+02
  34.700  0.3744E+00  0.7304E+00  0.1726E+02
  34.750  0.3772E+00  0.7436E+00  0.1732E+02
  34.800  0.3620E+00  0.8039E+00  0.1737E+02
  34.850  0.3638E+00  0.9048E+00  0.1743E+02
  34.900  0.3588E+00  0.1120E+01  0.1750E+02
  34.950  0.3592E+00  0.1807E+01  0.1759E+02
  35.000  0.3604E+00  0.1426E+01  0.1770E+02
  35.050  0.3637E+00  0.8716E+00  0.1777E+02
  35.100  0.3586E+00  0.7652E+00  0.1783E+02
  35.150  0.3783E+00  0.6923E+00  0.1788E+02
  35.200  0.4144E+00  0.6377E+00  0.1793E+02
  35.250  0.2992E+00  0.5915E+00  0.1798E+02
  35.300  0.2720E+00  0.5561E+00  0.1803E+02
  35.350  0.2467E+00  0.5229E+00  0.1807E+02
  35.400  0.2344E+00  0.5045E+00  0.1810E+02
  35.450  0.2126E+00  0.4870E+00  0.1814E+02
  35.500  0.1936E+00  0.4724E+00  0.1817E+02
  35.550  0.1729E+00  0.4582E+00  0.1821E+02
  35.600  0.1571E+00  0.4501E+00  0.1824E+02
  35.650  0.1392E+00  0.4334E+00  0.1827E+02
  35.700  0.1222E+00  0.4151E+00  0.1829E+02
  35.750  0.1079E+00  0.4042E+00  0.1832E+02
  35.800  0.1014E+00  0.3993E+00  0.1835E+02
  35.850  0.9621E-01  0.4059E+00  0.1837E+02
  35.900  0.9391E-01  0.3972E+00  0.1840E+02
  35.950  0.9384E-01  0.3888E+00  0.1842E+02
  36.000  0.9371E-01  0.3851E+00  0.1844E+02
  36.050  0.9378E-01  0.4286E+00  0.1847E+02
  36.100  0.9380E-01  0.3525E+00  0.1849E+02
  36.150  0.9364E-01  0.3017E+00  0.1851E+02
  36.200  0.9373E-01  0.2805E+00  0.1853E+02
  36.250  0.9373E-01  0.2572E+00  0.1855E+02
  36.300  0.9336E-01  0.2403E+00  0.1857E+02
  36.350  0.9327E-01  0.2181E+00  0.1859E+02
  36.400  0.9284E-01  0.1989E+00  0.1860E+02
  36.450  0.9291E-01  0.1796E+00  0.1861E+02
  36.500  0.9344E-01  0.1633E+00  0.1863E+02
  36.550  0.9331E-01  0.1506E+00  0.1864E+02
  36.600  0.9264E-01  0.1283E+00  0.1865E+02
  36.650  0.9233E-01  0.1160E+00  0.1866E+02
  36.700  0.9225E-01  0.1118E+00  0.1867E+02
  36.750  0.9224E-01  0.1070E+00  0.1868E+02
  36.800  0.9212E-01  0.1048E+00  0.1869E+02
  36.850  0.9212E-01  0.1049E+00  0.1870E+02
  36.900  0.9216E-01  0.1049E+00  0.1871E+02
  36.950  0.9207E-01  0.1047E+00  0.1872E+02
  37.000  0.9197E-01  0.1046E+00  0.1873E+02
  37.050  0.9184E-01  0.1032E+00  0.1874E+02
  37.100  0.9167E-01  0.1025E+00  0.1875E+02
  37.150  0.9147E-01  0.1015E+00  0.1876E+02
  37.200  0.9136E-01  0.1011E+00  0.1877E+02
  37.250  0.9111E-01  0.1015E+00  0.1878E+02
  37.300  0.9113E-01  0.1009E+00  0.1879E+02
  37.350  0.9108E-01  0.9989E-01  0.1880E+02
  37.400  0.9124E-01  0.9930E-01  0.1881E+02
  37.450  0.9127E-01  0.9903E-01  0.1882E+02
  37.500  0.9118E-01  0.9881E-01  0.1883E+02
  37.550  0.9115E-01  0.9871E-01  0.1884E+02
  37.600  0.9108E-01  0.9865E-01  0.1885E+02
  37.650  0.9108E-01  0.9848E-01  0.1886E+02
  37.700  0.9106E-01  0.9833E-01  0.1887E+02
  37.750  0.9100E-01  0.9815E-01  0.1888E+02
  37.800  0.9080E-01  0.9795E-01  0.1889E+02
  37.850  0.9064E-01  0.9779E-01  0.1889E+02
  37.900  0.9049E-01  0.9742E-01  0.1890E+02
  37.950  0.9039E-01  0.9717E-01  0.1891E+02
  38.000  0.9053E-01  0.9686E-01  0.1892E+02
